#%%           3570.00000            11.00000   -1             0.27000
#% LAB  survey ------------------
#% wanted position:  l, b, RA, DEC, and interpolated  NH
#% 69.64 ; -33.60 ; 330.00 ;  11.00 ;  0.473E+21
#% nearest position: l, b, RA, DEC, and observed NH
#% 69.50 ; -33.50 ; 329.84 ;  10.98 ;  0.476E+21
#% GASS III survey --------------
#% NH - median within 6 arcmin radius   0.00    
#% NH - mean within specified beam      0.00    
#%%GASS      0  datapoints: v_lsr [km/s] and T_B [K] for beam weighted average and median within 6 arcmin
#%%LAB     777  datapoints: v_lsr [km/s] and T_B [K]
    -399.81     -0.01
    -398.78      0.07
    -397.75      0.08
    -396.72     -0.07
    -395.69      0.06
    -394.66     -0.05
    -393.63     -0.04
    -392.60      0.03
    -391.57      0.09
    -390.54     -0.03
    -389.51     -0.19
    -388.48      0.04
    -387.45      0.03
    -386.42      0.06
    -385.39      0.09
    -384.36     -0.03
    -383.32     -0.02
    -382.29      0.02
    -381.26      0.02
    -380.23     -0.04
    -379.20      0.09
    -378.17     -0.10
    -377.14     -0.06
    -376.11      0.01
    -375.08      0.10
    -374.05      0.03
    -373.02     -0.09
    -371.99      0.01
    -370.96      0.04
    -369.93     -0.05
    -368.90     -0.09
    -367.87      0.01
    -366.84      0.02
    -365.81     -0.12
    -364.78     -0.04
    -363.75     -0.07
    -362.72      0.02
    -361.69     -0.00
    -360.66     -0.00
    -359.62     -0.06
    -358.59      0.10
    -357.56     -0.04
    -356.53      0.05
    -355.50      0.00
    -354.47      0.10
    -353.44      0.18
    -352.41      0.04
    -351.38     -0.04
    -350.35     -0.06
    -349.32      0.03
    -348.29      0.16
    -347.26      0.04
    -346.23      0.04
    -345.20      0.07
    -344.17      0.01
    -343.14     -0.00
    -342.11      0.01
    -341.08     -0.07
    -340.05      0.02
    -339.02      0.03
    -337.99     -0.09
    -336.95      0.02
    -335.92      0.05
    -334.89     -0.07
    -333.86      0.04
    -332.83      0.09
    -331.80     -0.11
    -330.77     -0.03
    -329.74     -0.02
    -328.71     -0.10
    -327.68      0.15
    -326.65     -0.01
    -325.62     -0.03
    -324.59      0.04
    -323.56      0.06
    -322.53     -0.11
    -321.50     -0.06
    -320.47     -0.08
    -319.44      0.11
    -318.41     -0.03
    -317.38      0.03
    -316.35     -0.03
    -315.32     -0.02
    -314.29      0.03
    -313.25     -0.07
    -312.22     -0.10
    -311.19      0.04
    -310.16     -0.00
    -309.13      0.00
    -308.10      0.01
    -307.07     -0.02
    -306.04     -0.04
    -305.01      0.07
    -303.98     -0.06
    -302.95     -0.01
    -301.92     -0.05
    -300.89     -0.03
    -299.86      0.01
    -298.83      0.10
    -297.80     -0.02
    -296.77     -0.11
    -295.74     -0.01
    -294.71     -0.01
    -293.68      0.03
    -292.65      0.10
    -291.62      0.00
    -290.59     -0.01
    -289.55     -0.01
    -288.52     -0.01
    -287.49     -0.13
    -286.46      0.01
    -285.43      0.10
    -284.40      0.02
    -283.37      0.04
    -282.34      0.13
    -281.31      0.07
    -280.28      0.05
    -279.25     -0.13
    -278.22     -0.10
    -277.19     -0.04
    -276.16     -0.05
    -275.13      0.12
    -274.10     -0.09
    -273.07     -0.05
    -272.04      0.02
    -271.01     -0.00
    -269.98      0.10
    -268.95     -0.14
    -267.92     -0.15
    -266.88     -0.07
    -265.85      0.00
    -264.82      0.07
    -263.79      0.17
    -262.76     -0.13
    -261.73     -0.21
    -260.70     -0.06
    -259.67      0.00
    -258.64      0.06
    -257.61      0.03
    -256.58      0.02
    -255.55      0.01
    -254.52     -0.03
    -253.49      0.00
    -252.46     -0.06
    -251.43     -0.03
    -250.40     -0.07
    -249.37      0.09
    -248.34     -0.05
    -247.31      0.09
    -246.28     -0.04
    -245.25      0.01
    -244.22     -0.10
    -243.18      0.13
    -242.15     -0.05
    -241.12      0.03
    -240.09      0.01
    -239.06     -0.11
    -238.03      0.04
    -237.00     -0.02
    -235.97      0.07
    -234.94      0.00
    -233.91      0.00
    -232.88     -0.07
    -231.85      0.03
    -230.82      0.20
    -229.79      0.01
    -228.76      0.13
    -227.73     -0.03
    -226.70     -0.08
    -225.67     -0.01
    -224.64     -0.12
    -223.61      0.07
    -222.58      0.15
    -221.55     -0.01
    -220.51     -0.08
    -219.48      0.07
    -218.45      0.05
    -217.42     -0.17
    -216.39     -0.05
    -215.36     -0.00
    -214.33      0.03
    -213.30     -0.09
    -212.27     -0.07
    -211.24     -0.14
    -210.21      0.09
    -209.18      0.02
    -208.15      0.09
    -207.12     -0.01
    -206.09     -0.04
    -205.06     -0.05
    -204.03      0.06
    -203.00     -0.02
    -201.97      0.04
    -200.94      0.10
    -199.91      0.03
    -198.88     -0.09
    -197.85     -0.02
    -196.81      0.09
    -195.78      0.07
    -194.75     -0.09
    -193.72     -0.08
    -192.69     -0.04
    -191.66     -0.00
    -190.63      0.10
    -189.60     -0.07
    -188.57      0.01
    -187.54      0.14
    -186.51     -0.12
    -185.48     -0.05
    -184.45      0.07
    -183.42      0.03
    -182.39     -0.09
    -181.36      0.04
    -180.33      0.03
    -179.30     -0.08
    -178.27      0.02
    -177.24     -0.03
    -176.21      0.02
    -175.18      0.12
    -174.14     -0.13
    -173.11      0.07
    -172.08     -0.16
    -171.05      0.02
    -170.02      0.06
    -168.99     -0.11
    -167.96      0.03
    -166.93      0.11
    -165.90      0.05
    -164.87      0.06
    -163.84     -0.04
    -162.81     -0.09
    -161.78      0.03
    -160.75      0.02
    -159.72      0.09
    -158.69      0.12
    -157.66      0.05
    -156.63      0.13
    -155.60     -0.02
    -154.57      0.12
    -153.54      0.05
    -152.51     -0.09
    -151.48      0.05
    -150.44      0.03
    -149.41     -0.12
    -148.38      0.13
    -147.35     -0.06
    -146.32     -0.02
    -145.29      0.09
    -144.26     -0.05
    -143.23      0.03
    -142.20      0.13
    -141.17     -0.01
    -140.14      0.03
    -139.11      0.05
    -138.08     -0.03
    -137.05      0.05
    -136.02      0.09
    -134.99      0.04
    -133.96     -0.17
    -132.93     -0.01
    -131.90      0.10
    -130.87     -0.05
    -129.84     -0.03
    -128.81      0.14
    -127.77      0.02
    -126.74      0.04
    -125.71     -0.01
    -124.68     -0.02
    -123.65      0.09
    -122.62     -0.02
    -121.59      0.07
    -120.56     -0.16
    -119.53      0.02
    -118.50      0.13
    -117.47      0.04
    -116.44     -0.07
    -115.41      0.15
    -114.38     -0.15
    -113.35      0.08
    -112.32      0.09
    -111.29      0.07
    -110.26      0.17
    -109.23     -0.04
    -108.20     -0.08
    -107.17      0.18
    -106.14      0.03
    -105.11      0.03
    -104.07      0.01
    -103.04     -0.01
    -102.01     -0.17
    -100.98      0.01
     -99.95      0.02
     -98.92      0.04
     -97.89      0.08
     -96.86      0.05
     -95.83      0.08
     -94.80      0.07
     -93.77      0.13
     -92.74     -0.14
     -91.71      0.07
     -90.68      0.08
     -89.65     -0.05
     -88.62      0.00
     -87.59      0.08
     -86.56     -0.03
     -85.53     -0.07
     -84.50      0.03
     -83.47      0.00
     -82.44      0.04
     -81.41     -0.06
     -80.37     -0.01
     -79.34      0.07
     -78.31      0.09
     -77.28      0.01
     -76.25     -0.01
     -75.22      0.09
     -74.19      0.05
     -73.16      0.08
     -72.13      0.01
     -71.10     -0.05
     -70.07      0.04
     -69.04      0.15
     -68.01      0.22
     -66.98      0.09
     -65.95      0.05
     -64.92      0.15
     -63.89      0.08
     -62.86      0.02
     -61.83      0.25
     -60.80      0.09
     -59.77      0.10
     -58.74      0.07
     -57.70      0.31
     -56.67      0.21
     -55.64      0.14
     -54.61      0.11
     -53.58      0.24
     -52.55     -0.03
     -51.52      0.25
     -50.49      0.22
     -49.46      0.31
     -48.43      0.21
     -47.40      0.15
     -46.37      0.26
     -45.34      0.14
     -44.31      0.25
     -43.28      0.30
     -42.25      0.29
     -41.22      0.35
     -40.19      0.31
     -39.16      0.16
     -38.13      0.26
     -37.10      0.28
     -36.07      0.31
     -35.04      0.32
     -34.00      0.28
     -32.97      0.43
     -31.94      0.23
     -30.91      0.44
     -29.88      0.17
     -28.85      0.34
     -27.82      0.45
     -26.79      0.36
     -25.76      0.45
     -24.73      0.57
     -23.70      0.51
     -22.67      0.74
     -21.64      0.68
     -20.61      0.91
     -19.58      0.83
     -18.55      1.06
     -17.52      1.18
     -16.49      1.25
     -15.46      1.39
     -14.43      1.42
     -13.40      1.58
     -12.37      1.86
     -11.33      2.19
     -10.30      2.71
      -9.27      4.01
      -8.24      5.36
      -7.21      6.53
      -6.18      7.28
      -5.15      7.96
      -4.12      8.43
      -3.09      8.18
      -2.06      7.85
      -1.03      7.88
       0.00      7.97
       1.03      8.50
       2.06      8.83
       3.09      9.31
       4.12      9.38
       5.15      9.24
       6.18      9.37
       7.21      9.69
       8.24      9.87
       9.27      9.90
      10.30      9.90
      11.33      9.43
      12.37      8.77
      13.40      7.44
      14.43      6.05
      15.46      4.66
      16.49      3.57
      17.52      3.00
      18.55      2.42
      19.58      1.72
      20.61      1.27
      21.64      1.12
      22.67      0.85
      23.70      0.75
      24.73      0.56
      25.76      0.31
      26.79      0.23
      27.82      0.32
      28.85      0.17
      29.88      0.32
      30.91      0.17
      31.94      0.19
      32.97      0.14
      34.00      0.17
      35.04      0.15
      36.07      0.04
      37.10      0.07
      38.13      0.08
      39.16      0.13
      40.19      0.04
      41.22     -0.06
      42.25     -0.04
      43.28      0.07
      44.31     -0.07
      45.34     -0.05
      46.37      0.17
      47.40      0.04
      48.43      0.05
      49.46     -0.02
      50.49      0.01
      51.52      0.06
      52.55     -0.07
      53.58     -0.04
      54.61      0.11
      55.64      0.04
      56.67      0.06
      57.70      0.04
      58.74      0.03
      59.77      0.05
      60.80     -0.03
      61.83     -0.05
      62.86     -0.05
      63.89      0.15
      64.92      0.03
      65.95      0.03
      66.98      0.08
      68.01      0.01
      69.04      0.09
      70.07      0.05
      71.10     -0.02
      72.13     -0.14
      73.16      0.02
      74.19     -0.14
      75.22      0.12
      76.25      0.03
      77.28     -0.11
      78.31      0.04
      79.34      0.03
      80.37      0.03
      81.41      0.02
      82.44      0.19
      83.47     -0.04
      84.50     -0.02
      85.53      0.05
      86.56      0.10
      87.59      0.09
      88.62     -0.05
      89.65      0.03
      90.68     -0.04
      91.71     -0.05
      92.74      0.07
      93.77      0.05
      94.80     -0.00
      95.83      0.00
      96.86      0.02
      97.89      0.12
      98.92     -0.01
      99.95     -0.15
     100.98      0.05
     102.01     -0.03
     103.04      0.04
     104.07     -0.03
     105.11     -0.02
     106.14      0.06
     107.17      0.10
     108.20     -0.09
     109.23      0.00
     110.26      0.00
     111.29      0.03
     112.32     -0.04
     113.35      0.00
     114.38     -0.05
     115.41      0.03
     116.44      0.09
     117.47     -0.03
     118.50      0.07
     119.53     -0.08
     120.56     -0.15
     121.59      0.04
     122.62     -0.17
     123.65     -0.08
     124.68     -0.01
     125.71      0.03
     126.74     -0.19
     127.77     -0.07
     128.81      0.07
     129.84      0.05
     130.87     -0.01
     131.90      0.06
     132.93     -0.04
     133.96      0.09
     134.99      0.02
     136.02     -0.02
     137.05     -0.02
     138.08      0.07
     139.11      0.01
     140.14      0.02
     141.17      0.04
     142.20     -0.01
     143.23     -0.02
     144.26      0.14
     145.29     -0.04
     146.32     -0.08
     147.35     -0.09
     148.38      0.09
     149.41      0.06
     150.44     -0.13
     151.48     -0.02
     152.51      0.07
     153.54      0.11
     154.57      0.07
     155.60      0.12
     156.63      0.04
     157.66     -0.09
     158.69     -0.04
     159.72     -0.05
     160.75      0.01
     161.78      0.11
     162.81      0.07
     163.84      0.01
     164.87      0.01
     165.90     -0.07
     166.93      0.08
     167.96      0.00
     168.99      0.04
     170.02      0.03
     171.05      0.06
     172.08     -0.03
     173.11      0.14
     174.14     -0.03
     175.18      0.01
     176.21      0.07
     177.24      0.10
     178.27     -0.05
     179.30      0.00
     180.33     -0.09
     181.36      0.03
     182.39      0.01
     183.42      0.05
     184.45      0.11
     185.48     -0.07
     186.51     -0.11
     187.54      0.03
     188.57     -0.01
     189.60     -0.05
     190.63      0.06
     191.66     -0.05
     192.69     -0.08
     193.72      0.09
     194.75     -0.10
     195.78      0.06
     196.81     -0.00
     197.85      0.15
     198.88     -0.13
     199.91     -0.05
     200.94      0.04
     201.97     -0.04
     203.00     -0.08
     204.03      0.03
     205.06     -0.09
     206.09     -0.04
     207.12     -0.02
     208.15      0.08
     209.18      0.04
     210.21     -0.07
     211.24      0.05
     212.27     -0.06
     213.30     -0.02
     214.33      0.04
     215.36      0.16
     216.39      0.03
     217.42     -0.10
     218.45      0.07
     219.48      0.01
     220.51      0.01
     221.55     -0.04
     222.58     -0.06
     223.61     -0.06
     224.64     -0.08
     225.67     -0.03
     226.70      0.08
     227.73     -0.05
     228.76      0.03
     229.79     -0.06
     230.82      0.13
     231.85     -0.04
     232.88      0.03
     233.91      0.04
     234.94      0.04
     235.97     -0.07
     237.00      0.09
     238.03     -0.01
     239.06      0.11
     240.09     -0.01
     241.12      0.06
     242.15      0.07
     243.18      0.03
     244.22      0.01
     245.25      0.02
     246.28     -0.03
     247.31      0.06
     248.34     -0.02
     249.37      0.01
     250.40      0.16
     251.43     -0.08
     252.46     -0.06
     253.49      0.03
     254.52      0.11
     255.55      0.10
     256.58     -0.02
     257.61      0.02
     258.64     -0.08
     259.67     -0.08
     260.70     -0.08
     261.73     -0.17
     262.76      0.10
     263.79      0.05
     264.82     -0.06
     265.85      0.04
     266.88     -0.12
     267.92      0.09
     268.95     -0.06
     269.98     -0.03
     271.01     -0.15
     272.04     -0.16
     273.07     -0.05
     274.10      0.07
     275.13      0.04
     276.16      0.01
     277.19     -0.03
     278.22     -0.06
     279.25      0.04
     280.28     -0.04
     281.31     -0.09
     282.34     -0.12
     283.37     -0.03
     284.40      0.13
     285.43     -0.02
     286.46     -0.03
     287.49      0.01
     288.52     -0.06
     289.55      0.14
     290.59      0.11
     291.62      0.05
     292.65     -0.07
     293.68     -0.04
     294.71      0.12
     295.74     -0.02
     296.77      0.04
     297.80     -0.13
     298.83      0.16
     299.86     -0.07
     300.89      0.01
     301.92     -0.01
     302.95      0.17
     303.98     -0.09
     305.01      0.01
     306.04      0.02
     307.07      0.00
     308.10     -0.02
     309.13      0.04
     310.16      0.03
     311.19     -0.02
     312.22     -0.01
     313.25     -0.03
     314.29     -0.05
     315.32     -0.02
     316.35      0.13
     317.38     -0.05
     318.41     -0.00
     319.44      0.01
     320.47      0.03
     321.50      0.03
     322.53     -0.02
     323.56      0.10
     324.59      0.03
     325.62     -0.02
     326.65     -0.08
     327.68      0.13
     328.71     -0.04
     329.74      0.07
     330.77     -0.14
     331.80     -0.00
     332.83     -0.03
     333.86     -0.01
     334.89     -0.03
     335.92     -0.06
     336.95     -0.12
     337.99     -0.00
     339.02      0.00
     340.05      0.03
     341.08     -0.00
     342.11      0.04
     343.14     -0.11
     344.17     -0.00
     345.20      0.03
     346.23     -0.03
     347.26      0.00
     348.29      0.06
     349.32      0.04
     350.35      0.10
     351.38     -0.03
     352.41      0.00
     353.44      0.11
     354.47      0.12
     355.50      0.03
     356.53      0.01
     357.56     -0.07
     358.59     -0.06
     359.62     -0.03
     360.66     -0.07
     361.69     -0.03
     362.72      0.12
     363.75      0.06
     364.78      0.02
     365.81     -0.05
     366.84     -0.03
     367.87     -0.08
     368.90     -0.05
     369.93     -0.00
     370.96      0.11
     371.99     -0.14
     373.02      0.11
     374.05     -0.05
     375.08     -0.01
     376.11     -0.02
     377.14     -0.01
     378.17      0.03
     379.20     -0.04
     380.23     -0.02
     381.26      0.11
     382.29      0.05
     383.32     -0.11
     384.36      0.12
     385.39     -0.04
     386.42     -0.02
     387.45     -0.03
     388.48      0.04
     389.51      0.09
     390.54     -0.00
     391.57      0.09
     392.60      0.09
     393.63      0.03
     394.66      0.01
     395.69      0.07
     396.72     -0.09
     397.75     -0.05
     398.78      0.04
     399.81     -0.00
   
